# Kennlinienmessung der Hochvakuumiode
# I_H = 2.1A, U_H = 4V
# U_B / V, I_A / mA
    0 0
  2.5 0.003
  5.0 0.009
  7.5 0.015
 10.0 0.024
 12.5 0.032
 15.0 0.039
 17.5 0.047
 20.0 0.056
 22.5 0.064
 25.0 0.074
 27.5 0.083
 30.0 0.090
 32.5 0.101
 35.0 0.110
 37.5 0.120
 40.0 0.129
 42.5 0.138 
 45.0 0.146
 47.5 0.153
 50.0 0.157
 55.0 0.169
 60.0 0.181
 65.0 0.191
 70.0 0.200
 75.0 0.206
 80.0 0.209
 90.0 0.217
100.0 0.224
120.0 0.233
150.0 0.243
