# Kennlinienmessung der Hochvakuumiode
# I_H = 2.2A, U_H = 4.3V
# U_B / V, I_A / mA
    0 0
  5.0 0.010
  7.5 0.018
 10.0 0.028
 12.5 0.037
 15.0 0.047
 17.5 0.059
 20.0 0.070
 22.5 0.081
 25.0 0.091
 27.5 0.105
 30.0 0.116
 32.5 0.127
 35.0 0.141
 37.5 0.154
 40.0 0.170
 42.5 0.181
 45.0 0.196
 47.5 0.209
 50.0 0.219
 55.0 0.249
 60.0 0.280
 65.0 0.306
 70.0 0.337
 75.0 0.361
 80.0 0.388
 85.0 0.402
 90.0 0.428
100.0 0.462
110.0 0.495
120.0 0.518
140.0 0.544
160.0 0.559
170.0 0.562
